SpectraSuite Data File
++++++++++++++++++++++++++++++++++++
Date: Fri Nov 29 17:06:29 GMT 2019
User: hal27
Dark Spectrum Present: Yes
Reference Spectrum Present: No
Number of Sampled Component Spectra: 1
Spectrometers: FLMS01216
Integration Time (usec): 100000 (FLMS01216)
Spectra Averaged: 3 (FLMS01216)
Boxcar Smoothing: 0 (FLMS01216)
Correct for Electrical Dark: No (FLMS01216)
Strobe/Lamp Enabled: No (FLMS01216)
Correct for Detector Non-linearity: No (FLMS01216)
Correct for Stray Light: No (FLMS01216)
Number of Pixels in Processed Spectrum: 2048
>>>>>Begin Processed Spectral Data<<<<<
341.05	26.53
341.43	26.53
341.82	26.53
342.20	-21.84
342.58	-3.90
342.96	22.63
343.34	-47.59
343.73	17.16
344.11	12.48
344.49	-44.47
344.87	-6.24
345.25	9.36
345.64	0.00
346.02	-17.16
346.40	-14.82
346.78	39.01
347.16	-42.91
347.55	-12.48
347.93	-27.31
348.31	-28.87
348.69	-36.67
349.07	-30.43
349.45	-12.48
349.83	7.02
350.22	-39.01
350.60	-35.89
350.98	36.67
351.36	0.00
351.74	25.75
352.12	-19.50
352.50	-30.43
352.88	70.22
353.27	14.04
353.65	-54.61
354.03	0.78
354.41	3.12
354.79	30.43
355.17	-15.60
355.55	8.58
355.93	2.34
356.31	-39.79
356.69	54.61
357.08	8.58
357.46	-32.77
357.84	22.63
358.22	46.81
358.60	-21.06
358.98	17.16
359.36	-40.57
359.74	-63.97
360.12	-7.02
360.50	62.41
360.88	10.14
361.26	-19.50
361.64	31.99
362.02	-30.43
362.40	3.90
362.78	9.36
363.16	14.82
363.54	-16.38
363.92	-14.82
364.30	35.89
364.68	-10.14
365.06	-52.27
365.44	0.00
365.82	-41.35
366.20	21.06
366.58	13.26
366.96	22.63
367.34	-17.94
367.72	4.68
368.10	27.31
368.48	21.06
368.86	9.36
369.24	33.55
369.62	-18.72
370.00	33.55
370.38	32.77
370.75	15.60
371.13	35.11
371.51	20.28
371.89	-6.24
372.27	11.70
372.65	-5.46
373.03	3.12
373.41	-29.65
373.79	0.00
374.17	-51.49
374.55	-40.57
374.92	-17.94
375.30	-53.05
375.68	-18.72
376.06	-49.15
376.44	-10.92
376.82	3.12
377.20	-24.97
377.58	-40.57
377.95	-38.23
378.33	-3.90
378.71	30.43
379.09	17.16
379.47	29.65
379.85	40.57
380.22	-6.24
380.60	24.97
380.98	-5.46
381.36	1.56
381.74	-19.50
382.11	36.67
382.49	14.04
382.87	12.48
383.25	25.75
383.63	37.45
384.00	-24.97
384.38	-20.28
384.76	40.57
385.14	-32.77
385.52	17.94
385.89	-21.85
386.27	-35.11
386.65	-39.79
387.03	5.46
387.40	17.94
387.78	-19.50
388.16	2.34
388.54	-7.80
388.91	7.80
389.29	7.02
389.67	-4.68
390.05	-39.79
390.42	6.24
390.80	23.41
391.18	-5.46
391.55	28.09
391.93	12.48
392.31	39.01
392.68	8.58
393.06	34.33
393.44	-28.09
393.82	67.88
394.19	-32.77
394.57	-19.50
394.95	-14.04
395.32	52.27
395.70	6.24
396.08	3.12
396.45	45.25
396.83	58.51
397.21	-13.26
397.58	-10.92
397.96	-20.28
398.33	28.87
398.71	-42.91
399.09	-24.97
399.46	-20.28
399.84	-9.36
400.22	-1.56
400.59	8.58
400.97	8.58
401.34	-20.28
401.72	-4.68
402.10	-15.60
402.47	31.21
402.85	-28.87
403.22	-14.82
403.60	-25.75
403.97	-2.34
404.35	-17.16
404.73	-8.58
405.10	39.79
405.48	-35.11
405.85	-17.16
406.23	75.68
406.60	-23.41
406.98	-31.99
407.35	14.04
407.73	27.31
408.11	25.75
408.48	-23.41
408.86	27.31
409.23	7.02
409.61	7.80
409.98	38.23
410.36	22.63
410.73	-7.80
411.11	42.91
411.48	-17.94
411.86	-33.55
412.23	17.16
412.61	8.58
412.98	-49.93
413.35	-10.92
413.73	19.50
414.10	-19.50
414.48	21.85
414.85	-16.38
415.23	-16.38
415.60	-64.75
415.98	3.90
416.35	-21.85
416.73	-14.04
417.10	-31.21
417.47	-18.72
417.85	-3.12
418.22	40.57
418.60	-67.10
418.97	21.84
419.34	-49.93
419.72	-12.48
420.09	-35.11
420.47	-7.02
420.84	29.65
421.21	0.78
421.59	21.85
421.96	1.56
422.34	67.88
422.71	-10.92
423.08	20.28
423.46	-39.01
423.83	-2.34
424.20	51.49
424.58	-2.34
424.95	2.34
425.32	13.26
425.70	28.09
426.07	-31.21
426.44	-15.60
426.82	18.72
427.19	6.24
427.56	1.56
427.94	1.56
428.31	5.46
428.68	21.06
429.05	15.60
429.43	4.68
429.80	-2.34
430.17	-6.24
430.55	-43.69
430.92	-32.77
431.29	29.65
431.66	-14.82
432.04	-47.59
432.41	-15.60
432.78	-21.06
433.15	-59.29
433.53	-27.31
433.90	19.50
434.27	27.31
434.64	-7.02
435.02	-48.37
435.39	-3.12
435.76	-17.16
436.13	-49.93
436.51	-3.90
436.88	-38.23
437.25	-71.78
437.62	36.67
437.99	28.09
438.37	-1.56
438.74	-28.09
439.11	-5.46
439.48	-7.80
439.85	-47.59
440.22	-63.19
440.60	29.65
440.97	56.17
441.34	-3.90
441.71	5.46
442.08	17.16
442.45	47.59
442.83	-20.28
443.20	-10.14
443.57	30.43
443.94	-16.38
444.31	-46.81
444.68	-88.16
445.05	19.50
445.42	28.09
445.79	-7.80
446.17	0.78
446.54	57.73
446.91	0.78
447.28	-3.90
447.65	-78.02
448.02	28.87
448.39	-28.09
448.76	-31.21
449.13	-17.94
449.50	-10.92
449.87	13.26
450.24	23.41
450.61	42.13
450.99	8.58
451.36	5.46
451.73	34.33
452.10	-30.43
452.47	-44.47
452.84	-37.45
453.21	-24.97
453.58	-24.97
453.95	33.55
454.32	-46.81
454.69	35.89
455.06	-7.02
455.43	-28.09
455.80	-3.12
456.17	-26.53
456.54	27.31
456.91	-3.12
457.28	-6.24
457.65	45.25
458.02	-2.34
458.39	-0.78
458.76	-45.25
459.13	-59.29
459.49	-13.26
459.86	-1.56
460.23	34.33
460.60	7.80
460.97	3.12
461.34	3.90
461.71	-0.78
462.08	-27.31
462.45	-7.80
462.82	-10.92
463.19	24.97
463.56	-1.56
463.93	39.01
464.29	-49.15
464.66	-3.90
465.03	-29.65
465.40	-39.01
465.77	11.70
466.14	-33.55
466.51	33.55
466.88	-14.04
467.24	5.46
467.61	24.97
467.98	10.92
468.35	45.25
468.72	31.99
469.09	9.36
469.46	-3.90
469.82	14.82
470.19	-22.63
470.56	-11.70
470.93	-25.75
471.30	7.02
471.66	-23.41
472.03	-42.13
472.40	8.58
472.77	-5.46
473.14	-23.41
473.50	49.15
473.87	-14.04
474.24	-28.87
474.61	33.55
474.98	-3.90
475.34	40.57
475.71	14.82
476.08	-26.53
476.45	16.38
476.81	-2.34
477.18	0.00
477.55	-27.31
477.92	-31.21
478.28	17.94
478.65	-9.36
479.02	-24.97
479.38	3.12
479.75	24.19
480.12	-22.63
480.49	-23.41
480.85	-25.75
481.22	-71.78
481.59	-9.36
481.95	33.55
482.32	31.99
482.69	26.53
483.05	-10.14
483.42	-11.70
483.79	-9.36
484.15	39.79
484.52	-0.78
484.89	31.21
485.25	31.21
485.62	-15.60
485.99	27.31
486.35	-13.26
486.72	13.26
487.08	9.36
487.45	-10.14
487.82	-19.50
488.18	7.02
488.55	-59.29
488.92	-18.72
489.28	42.91
489.65	31.21
490.01	-45.25
490.38	-8.58
490.75	18.72
491.11	-42.13
491.48	-48.37
491.84	-45.25
492.21	3.12
492.57	-32.77
492.94	-31.21
493.30	-2.34
493.67	11.70
494.04	3.90
494.40	41.35
494.77	17.94
495.13	46.03
495.50	-54.61
495.86	31.21
496.23	3.90
496.59	22.63
496.96	5.46
497.32	-6.24
497.69	-20.28
498.05	15.60
498.42	23.41
498.78	-48.37
499.15	9.36
499.51	3.90
499.88	10.92
500.24	-28.09
500.61	24.97
500.97	-24.97
501.34	-25.75
501.70	-31.99
502.06	-50.71
502.43	9.36
502.79	-35.89
503.16	28.09
503.52	-22.63
503.89	75.68
504.25	1.56
504.61	36.67
504.98	2.34
505.34	47.59
505.71	10.14
506.07	-21.06
506.43	-21.85
506.80	-39.01
507.16	9.36
507.53	-2.34
507.89	14.04
508.25	51.49
508.62	-8.58
508.98	1.56
509.34	-2.34
509.71	-22.63
510.07	-44.47
510.44	-55.39
510.80	-5.46
511.16	39.79
511.53	36.67
511.89	28.87
512.25	-10.92
512.61	7.80
512.98	7.80
513.34	11.70
513.70	-10.92
514.07	-40.57
514.43	-16.38
514.79	21.06
515.16	3.90
515.52	39.79
515.88	-43.69
516.24	-28.09
516.61	21.85
516.97	-1.56
517.33	13.26
517.69	40.57
518.06	-69.44
518.42	-10.92
518.78	31.21
519.14	9.36
519.51	-1.56
519.87	1.56
520.23	0.78
520.59	22.63
520.96	13.26
521.32	21.06
521.68	-6.24
522.04	-10.92
522.40	-32.77
522.77	-27.31
523.13	-16.38
523.49	4.68
523.85	-11.70
524.21	2.34
524.58	-21.06
524.94	-29.65
525.30	28.87
525.66	32.77
526.02	-52.27
526.38	11.70
526.74	18.72
527.11	-11.70
527.47	24.97
527.83	43.69
528.19	-5.46
528.55	-44.47
528.91	61.63
529.27	1.56
529.63	24.19
530.00	27.31
530.36	-17.94
530.72	-10.14
531.08	58.51
531.44	-68.66
531.80	-4.68
532.16	3.12
532.52	-42.91
532.88	25.75
533.24	4.68
533.60	-3.90
533.96	3.90
534.32	-6.24
534.69	-4.68
535.05	-29.65
535.41	19.50
535.77	15.60
536.13	28.09
536.49	0.78
536.85	-19.50
537.21	-52.27
537.57	6.24
537.93	-29.65
538.29	-28.87
538.65	26.53
539.01	48.37
539.37	-14.82
539.73	-50.71
540.09	-17.94
540.45	11.70
540.81	-10.14
541.17	-28.09
541.53	0.00
541.88	-67.10
542.24	-42.13
542.60	3.90
542.96	56.95
543.32	42.91
543.68	51.49
544.04	29.65
544.40	-14.04
544.76	-56.95
545.12	-7.02
545.48	3.90
545.84	66.32
546.20	-12.48
546.56	-32.77
546.91	10.92
547.27	17.16
547.63	-46.03
547.99	3.90
548.35	-3.12
548.71	-12.48
549.07	77.24
549.43	-3.90
549.78	-49.15
550.14	14.04
550.50	-21.06
550.86	0.78
551.22	2.34
551.58	10.14
551.93	-10.14
552.29	10.14
552.65	-35.11
553.01	10.14
553.37	-74.12
553.72	-53.05
554.08	-44.47
554.44	-11.70
554.80	-53.83
555.16	-1.56
555.51	-5.46
555.87	-2.34
556.23	18.72
556.59	19.50
556.95	-37.45
557.30	-27.31
557.66	0.78
558.02	-3.90
558.38	7.80
558.73	-9.36
559.09	16.38
559.45	29.65
559.80	7.80
560.16	-14.04
560.52	21.85
560.88	7.80
561.23	-34.33
561.59	-17.94
561.95	6.24
562.30	21.85
562.66	-25.75
563.02	8.58
563.38	-4.68
563.73	29.65
564.09	17.16
564.45	1.56
564.80	42.91
565.16	17.94
565.52	62.41
565.87	-49.15
566.23	-33.55
566.58	36.67
566.94	43.69
567.30	24.97
567.65	74.90
568.01	25.75
568.37	3.12
568.72	-4.68
569.08	14.04
569.43	-35.11
569.79	9.36
570.15	-21.84
570.50	-45.25
570.86	-41.35
571.21	45.25
571.57	67.88
571.92	-13.26
572.28	-35.89
572.64	24.19
572.99	97.52
573.35	42.13
573.70	10.92
574.06	17.16
574.41	42.91
574.77	-19.50
575.12	19.50
575.48	-10.14
575.83	-7.02
576.19	-9.36
576.54	-39.01
576.90	-7.02
577.26	-16.38
577.61	10.92
577.96	-51.49
578.32	8.58
578.67	-50.71
579.03	-37.45
579.38	25.75
579.74	3.12
580.09	32.77
580.45	-46.81
580.80	-21.85
581.16	-28.09
581.51	25.75
581.87	-3.90
582.22	-13.26
582.57	7.02
582.93	-35.11
583.28	-7.80
583.64	-18.72
583.99	10.14
584.35	55.39
584.70	-26.53
585.05	-10.14
585.41	-40.57
585.76	-28.87
586.12	-37.45
586.47	56.95
586.82	-3.12
587.18	0.00
587.53	-16.38
587.88	29.65
588.24	3.90
588.59	0.00
588.94	6.24
589.30	-0.78
589.65	-17.94
590.00	44.47
590.36	-28.09
590.71	37.45
591.06	36.67
591.42	-21.06
591.77	-48.37
592.12	17.94
592.48	17.16
592.83	-45.25
593.18	-52.27
593.54	-10.14
593.89	25.75
594.24	55.39
594.59	-53.83
594.95	-3.12
595.30	10.92
595.65	1.56
596.00	11.70
596.36	38.23
596.71	1.56
597.06	1.56
597.41	17.94
597.77	-38.23
598.12	-72.56
598.47	-42.91
598.82	-24.97
599.17	2.34
599.53	-26.53
599.88	17.16
600.23	-11.70
600.58	-3.12
600.93	14.04
601.29	-36.67
601.64	0.78
601.99	79.58
602.34	-3.12
602.69	5.46
603.05	-24.19
603.40	17.94
603.75	5.46
604.10	-13.26
604.45	-12.48
604.80	-16.38
605.15	88.94
605.50	-58.51
605.86	31.99
606.21	-12.48
606.56	-0.78
606.91	-14.04
607.26	21.06
607.61	9.36
607.96	18.72
608.31	42.13
608.66	6.24
609.01	-6.24
609.37	-55.39
609.72	-4.68
610.07	-11.70
610.42	29.65
610.77	-36.67
611.12	-10.14
611.47	40.57
611.82	4.68
612.17	7.02
612.52	-17.16
612.87	13.26
613.22	-0.78
613.57	14.04
613.92	-23.41
614.27	-40.57
614.62	28.87
614.97	-10.14
615.32	-14.82
615.67	-18.72
616.02	-24.19
616.37	6.24
616.72	-17.16
617.07	-21.06
617.42	-17.16
617.77	22.63
618.12	-0.78
618.47	-25.75
618.82	65.53
619.17	59.29
619.52	-22.63
619.87	31.21
620.22	-12.48
620.56	-3.90
620.91	-54.61
621.26	17.16
621.61	-21.06
621.96	38.23
622.31	-19.50
622.66	52.27
623.01	21.06
623.36	13.26
623.71	24.97
624.05	13.26
624.40	21.85
624.75	-37.45
625.10	-23.41
625.45	22.63
625.80	-21.84
626.15	-7.02
626.49	-7.02
626.84	-0.78
627.19	18.72
627.54	-49.93
627.89	32.77
628.23	53.05
628.58	-1.56
628.93	7.80
629.28	-21.84
629.63	14.82
629.97	44.47
630.32	-67.10
630.67	59.29
631.02	-10.92
631.37	-5.46
631.71	-24.97
632.06	-10.14
632.41	-1.56
632.76	-0.78
633.10	8.58
633.45	-54.61
633.80	3.90
634.15	-54.61
634.49	-22.63
634.84	-3.90
635.19	-47.59
635.54	-0.78
635.88	14.04
636.23	-10.92
636.58	21.85
636.92	24.97
637.27	36.67
637.62	-46.03
637.96	-39.01
638.31	7.02
638.66	0.78
639.00	-69.44
639.35	43.69
639.70	13.26
640.04	16.38
640.39	-36.67
640.74	-20.28
641.08	-34.33
641.43	24.97
641.78	-13.26
642.12	-24.19
642.47	31.21
642.81	13.26
643.16	-26.53
643.51	-19.50
643.85	27.31
644.20	11.70
644.54	-12.48
644.89	-44.47
645.24	-31.99
645.58	-4.68
645.93	42.13
646.27	-23.41
646.62	-44.47
646.96	-14.82
647.31	-17.16
647.65	10.92
648.00	-2.34
648.35	-16.38
648.69	0.78
649.04	8.58
649.38	-38.23
649.73	-60.07
650.07	-28.09
650.42	9.36
650.76	-60.07
651.11	46.03
651.45	9.36
651.80	-21.06
652.14	33.55
652.49	-0.00
652.83	3.12
653.18	17.16
653.52	-36.67
653.86	-14.82
654.21	53.83
654.55	-25.75
654.90	3.12
655.24	8.58
655.59	37.45
655.93	-3.90
656.27	7.02
656.62	-0.00
656.96	-17.16
657.31	29.65
657.65	-56.95
658.00	47.59
658.34	3.12
658.68	41.35
659.03	20.28
659.37	57.73
659.71	7.80
660.06	6.24
660.40	64.75
660.75	7.02
661.09	-2.34
661.43	-13.26
661.78	-25.75
662.12	-24.97
662.46	-5.46
662.81	12.48
663.15	31.99
663.49	-0.78
663.84	-45.25
664.18	9.36
664.52	80.36
664.86	61.63
665.21	-14.82
665.55	31.99
665.89	10.92
666.24	10.92
666.58	-7.02
666.92	-10.92
667.26	-25.75
667.61	-35.89
667.95	0.78
668.29	-11.70
668.63	5.46
668.98	45.25
669.32	-42.13
669.66	-10.14
670.00	18.72
670.35	13.26
670.69	-31.99
671.03	7.80
671.37	18.72
671.71	-14.82
672.06	14.04
672.40	33.55
672.74	-21.06
673.08	54.61
673.42	-28.87
673.76	33.55
674.11	12.48
674.45	-3.12
674.79	50.71
675.13	-13.26
675.47	0.78
675.81	34.33
676.16	31.99
676.50	3.90
676.84	8.58
677.18	-12.48
677.52	-7.80
677.86	2.34
678.20	-1.56
678.54	9.36
678.88	-2.34
679.23	-28.09
679.57	40.57
679.91	-13.26
680.25	-39.01
680.59	6.24
680.93	43.69
681.27	-7.80
681.61	-21.84
681.95	39.79
682.29	-31.21
682.63	-16.38
682.97	-31.99
683.31	-35.11
683.65	43.69
683.99	12.48
684.33	17.94
684.67	-21.06
685.01	-28.87
685.35	-49.93
685.69	3.12
686.03	-28.09
686.37	-31.21
686.71	-17.16
687.05	20.28
687.39	-31.21
687.73	-7.80
688.07	-53.05
688.41	33.55
688.75	24.97
689.09	20.28
689.43	-42.91
689.77	-29.65
690.11	-7.02
690.45	10.92
690.79	60.07
691.13	-42.91
691.46	22.63
691.80	-15.60
692.14	-3.90
692.48	3.90
692.82	-14.82
693.16	3.90
693.50	25.75
693.84	21.84
694.18	-17.16
694.51	46.81
694.85	12.48
695.19	-18.72
695.53	-23.41
695.87	-7.02
696.21	48.37
696.55	-29.65
696.88	37.45
697.22	35.89
697.56	-31.99
697.90	-10.14
698.24	28.87
698.57	-21.85
698.91	38.23
699.25	-46.03
699.59	1.56
699.93	4.68
700.26	8.58
700.60	-35.89
700.94	-1.56
701.28	7.02
701.61	8.58
701.95	-24.19
702.29	4.68
702.63	-3.12
702.96	-12.48
703.30	-17.94
703.64	-42.13
703.98	-29.65
704.31	49.15
704.65	-6.24
704.99	-36.67
705.32	17.94
705.66	8.58
706.00	-55.39
706.34	-4.68
706.67	4.68
707.01	3.12
707.35	25.75
707.68	-14.04
708.02	23.41
708.36	-7.80
708.69	-14.04
709.03	16.38
709.36	30.43
709.70	-77.24
710.04	7.02
710.37	69.44
710.71	-13.26
711.05	-10.92
711.38	10.92
711.72	39.01
712.05	-7.80
712.39	-24.19
712.73	-26.53
713.06	16.38
713.40	-9.36
713.73	30.43
714.07	-35.11
714.41	75.68
714.74	5.46
715.08	-14.04
715.41	9.36
715.75	-24.19
716.08	-37.45
716.42	-25.75
716.75	36.67
717.09	-14.82
717.42	-60.85
717.76	-15.60
718.09	-26.53
718.43	-56.95
718.76	10.14
719.10	10.14
719.43	-39.01
719.77	-47.59
720.10	4.68
720.44	-13.26
720.77	7.02
721.11	-27.31
721.44	24.97
721.78	42.91
722.11	-17.16
722.45	-63.19
722.78	3.90
723.11	0.00
723.45	4.68
723.78	-28.87
724.12	23.41
724.45	0.78
724.79	0.78
725.12	-2.34
725.45	11.70
725.79	0.78
726.12	24.19
726.45	19.50
726.79	5.46
727.12	40.57
727.46	5.46
727.79	-58.51
728.12	3.12
728.46	-41.35
728.79	-27.31
729.12	7.80
729.46	27.31
729.79	-56.95
730.12	-39.01
730.46	62.41
730.79	17.94
731.12	-6.24
731.46	-14.04
731.79	16.38
732.12	-24.97
732.45	-19.50
732.79	14.04
733.12	-17.16
733.45	23.41
733.79	10.92
734.12	-15.60
734.45	-25.75
734.78	21.85
735.12	39.01
735.45	28.09
735.78	9.36
736.11	31.21
736.45	18.72
736.78	-9.36
737.11	18.72
737.44	39.01
737.77	11.70
738.11	26.53
738.44	-9.36
738.77	-28.09
739.10	4.68
739.43	31.21
739.77	-14.82
740.10	-11.70
740.43	0.00
740.76	-14.82
741.09	-23.41
741.42	3.12
741.75	-31.99
742.09	7.80
742.42	-23.41
742.75	8.58
743.08	-15.60
743.41	-32.77
743.74	-12.48
744.07	-21.84
744.40	-17.16
744.74	15.60
745.07	8.58
745.40	-34.33
745.73	4.68
746.06	-30.43
746.39	1.56
746.72	-6.24
747.05	22.63
747.38	-3.90
747.71	-31.21
748.04	9.36
748.37	61.63
748.70	7.80
749.03	42.13
749.36	10.92
749.69	17.16
750.02	-63.97
750.35	-1.56
750.68	65.53
751.01	3.90
751.34	-24.97
751.67	-43.69
752.00	-32.77
752.33	42.91
752.66	-31.21
752.99	-17.16
753.32	-37.45
753.65	-51.49
753.98	26.53
754.31	-12.48
754.64	33.55
754.97	29.65
755.30	55.39
755.63	6.24
755.96	-31.21
756.29	-24.97
756.62	-7.02
756.94	-49.93
757.27	23.41
757.60	-1.56
757.93	-34.33
758.26	-0.78
758.59	-7.80
758.92	-4.68
759.25	53.83
759.57	-17.94
759.90	20.28
760.23	-17.16
760.56	19.50
760.89	-23.41
761.22	-34.33
761.54	-7.80
761.87	-24.19
762.20	-35.89
762.53	2.34
762.86	61.63
763.19	-20.28
763.51	5.46
763.84	0.78
764.17	34.33
764.50	14.04
764.82	7.02
765.15	17.16
765.48	-21.06
765.81	35.89
766.14	74.90
766.46	24.97
766.79	22.63
767.12	-1.56
767.45	-66.32
767.77	-28.09
768.10	7.80
768.43	46.81
768.75	-24.19
769.08	13.26
769.41	-10.92
769.74	-52.27
770.06	-7.80
770.39	12.48
770.72	-7.80
771.04	1.56
771.37	1.56
771.70	-38.23
772.02	48.37
772.35	-70.22
772.68	7.02
773.00	-42.91
773.33	7.80
773.65	31.99
773.98	-19.50
774.31	14.04
774.63	0.78
774.96	-28.87
775.29	0.00
775.61	16.38
775.94	-16.38
776.26	-19.50
776.59	-21.84
776.92	31.21
777.24	17.94
777.57	29.65
777.89	0.78
778.22	20.28
778.54	-12.48
778.87	41.35
779.19	29.65
779.52	-6.24
779.84	29.65
780.17	38.23
780.50	-28.09
780.82	-12.48
781.15	-31.21
781.47	-21.85
781.80	-6.24
782.12	-32.77
782.45	37.45
782.77	-54.61
783.10	-15.60
783.42	-55.39
783.74	-41.35
784.07	-24.19
784.39	-21.84
784.72	-24.97
785.04	-7.02
785.37	-58.51
785.69	53.05
786.02	12.48
786.34	12.48
786.66	23.41
786.99	11.70
787.31	-7.02
787.64	15.60
787.96	-29.65
788.28	16.38
788.61	9.36
788.93	48.37
789.26	0.00
789.58	-14.04
789.90	-20.28
790.23	-10.92
790.55	-28.87
790.87	-13.26
791.20	8.58
791.52	-17.94
791.84	-47.59
792.17	12.48
792.49	13.26
792.81	-26.53
793.14	-31.99
793.46	-27.31
793.78	-26.53
794.11	-5.46
794.43	-33.55
794.75	6.24
795.07	38.23
795.40	21.84
795.72	49.93
796.04	-4.68
796.37	-3.90
796.69	-24.97
797.01	9.36
797.33	39.01
797.66	-24.19
797.98	-17.94
798.30	10.14
798.62	21.85
798.94	29.65
799.27	25.75
799.59	-56.17
799.91	-60.07
800.23	-17.94
800.55	32.77
800.88	-39.01
801.20	21.84
801.52	-12.48
801.84	0.00
802.16	-12.48
802.48	13.26
802.81	-3.12
803.13	-5.46
803.45	-10.14
803.77	34.33
804.09	-17.16
804.41	-49.15
804.73	31.99
805.05	-14.82
805.38	28.87
805.70	10.14
806.02	-69.44
806.34	-35.89
806.66	-23.41
806.98	-5.46
807.30	12.48
807.62	21.84
807.94	7.02
808.26	-41.35
808.58	20.28
808.90	60.85
809.22	7.80
809.54	27.31
809.87	43.69
810.19	33.55
810.51	1.56
810.83	68.66
811.15	3.90
811.47	12.48
811.79	-28.87
812.11	47.59
812.43	-15.60
812.75	15.60
813.07	20.28
813.38	35.11
813.70	13.26
814.02	-20.28
814.34	6.24
814.66	-4.68
814.98	-4.68
815.30	-24.19
815.62	-9.36
815.94	-8.58
816.26	-16.38
816.58	50.71
816.90	-15.60
817.22	-5.46
817.54	-2.34
817.86	-56.17
818.17	-14.04
818.49	-24.97
818.81	52.27
819.13	42.13
819.45	-29.65
819.77	-10.14
820.09	0.78
820.40	17.94
820.72	-52.27
821.04	6.24
821.36	-5.46
821.68	21.06
822.00	-14.04
822.31	-27.31
822.63	-12.48
822.95	-19.50
823.27	-46.81
823.59	21.06
823.90	2.34
824.22	-10.92
824.54	-4.68
824.86	45.25
825.18	-8.58
825.49	-5.46
825.81	-22.63
826.13	-1.56
826.45	-45.25
826.76	9.36
827.08	25.75
827.40	31.99
827.72	-37.45
828.03	19.50
828.35	26.53
828.67	-7.80
828.98	-4.68
829.30	-3.12
829.62	-28.87
829.93	-31.99
830.25	52.27
830.57	36.67
830.88	26.53
831.20	32.77
831.52	17.94
831.83	-11.70
832.15	16.38
832.47	10.14
832.78	28.87
833.10	-42.91
833.42	-27.31
833.73	-0.78
834.05	14.82
834.36	13.26
834.68	-9.36
835.00	-10.92
835.31	-24.19
835.63	-53.05
835.94	21.06
836.26	4.68
836.58	-35.11
836.89	-24.19
837.21	-36.67
837.52	1.56
837.84	-31.99
838.15	-28.87
838.47	21.85
838.78	-24.19
839.10	16.38
839.41	23.41
839.73	-21.85
840.04	-4.68
840.36	24.97
840.67	-42.13
840.99	-21.84
841.30	-10.92
841.62	-58.51
841.93	-16.38
842.25	-21.84
842.56	32.77
842.88	21.06
843.19	41.35
843.51	14.82
843.82	-10.92
844.14	-0.78
844.45	-17.94
844.76	59.29
845.08	-4.68
845.39	-12.48
845.71	-1.56
846.02	-28.09
846.33	68.66
846.65	-5.46
846.96	22.63
847.28	1.56
847.59	26.53
847.90	-15.60
848.22	0.00
848.53	5.46
848.84	31.99
849.16	35.89
849.47	-13.26
849.78	20.28
850.10	-14.82
850.41	-27.31
850.72	7.02
851.04	12.48
851.35	-31.21
851.66	-14.04
851.98	-11.70
852.29	-2.34
852.60	6.24
852.92	20.28
853.23	-48.37
853.54	46.03
853.85	-69.44
854.17	4.68
854.48	21.06
854.79	-21.06
855.10	-23.41
855.42	-19.50
855.73	13.26
856.04	6.24
856.35	-21.84
856.66	-14.82
856.98	36.67
857.29	34.33
857.60	63.19
857.91	-28.87
858.22	-28.87
858.54	7.02
858.85	7.02
859.16	-17.94
859.47	9.36
859.78	7.02
860.09	0.78
860.41	-2.34
860.72	-13.26
861.03	-32.77
861.34	-6.24
861.65	-48.37
861.96	0.00
862.27	10.92
862.58	3.12
862.90	-7.80
863.21	-14.82
863.52	-9.36
863.83	-2.34
864.14	3.12
864.45	21.85
864.76	-23.41
865.07	-0.78
865.38	-9.36
865.69	-31.21
866.00	20.28
866.31	-30.43
866.62	-6.24
866.93	-28.09
867.24	10.14
867.55	-18.72
867.86	-5.46
868.17	3.90
868.48	35.11
868.79	7.80
869.10	-7.80
869.41	7.80
869.72	40.57
870.03	-22.63
870.34	-18.72
870.65	-64.75
870.96	17.94
871.27	1.56
871.58	38.23
871.89	-46.03
872.20	-60.85
872.51	10.92
872.82	-31.99
873.13	-16.38
873.44	-28.09
873.74	-3.12
874.05	39.01
874.36	-24.97
874.67	-3.90
874.98	-15.60
875.29	7.02
875.60	2.34
875.91	-66.32
876.21	-0.78
876.52	-6.24
876.83	28.87
877.14	-73.34
877.45	77.24
877.76	42.13
878.06	49.93
878.37	54.61
878.68	21.84
878.99	-26.53
879.30	21.06
879.61	17.16
879.91	-2.34
880.22	-23.41
880.53	-21.06
880.84	0.78
881.14	-49.93
881.45	-10.14
881.76	-14.04
882.07	-7.02
882.37	-7.80
882.68	-7.02
882.99	31.21
883.30	-10.14
883.60	-42.13
883.91	46.03
884.22	0.78
884.52	19.50
884.83	46.81
885.14	-8.58
885.45	14.04
885.75	-17.16
886.06	21.06
886.37	-71.78
886.67	2.34
886.98	42.91
887.29	47.59
887.59	45.25
887.90	-7.80
888.20	3.12
888.51	-39.79
888.82	-7.02
889.12	0.78
889.43	-2.34
889.74	-33.55
890.04	-53.83
890.35	-49.15
890.65	-30.43
890.96	-4.68
891.26	-47.59
891.57	-21.06
891.88	-14.04
892.18	11.70
892.49	20.28
892.79	6.24
893.10	45.25
893.40	0.78
893.71	46.81
894.01	-47.59
894.32	5.46
894.62	-38.23
894.93	-13.26
895.23	8.58
895.54	27.31
895.84	-21.06
896.15	-14.04
896.45	28.09
896.76	18.72
897.06	34.33
897.37	-14.04
897.67	31.99
897.98	-46.81
898.28	-1.56
898.59	6.24
898.89	18.72
899.19	-25.75
899.50	59.29
899.80	-22.63
900.11	21.06
900.41	15.60
900.71	-42.91
901.02	23.41
901.32	74.12
901.63	-29.65
901.93	-1.56
902.23	-32.77
902.54	31.21
902.84	-31.99
903.14	-17.94
903.45	16.38
903.75	-7.80
904.05	-20.28
904.36	22.63
904.66	-23.41
904.96	-7.80
905.27	-75.68
905.57	-21.85
905.87	39.79
906.18	29.65
906.48	21.06
906.78	-37.45
907.08	-21.85
907.39	-9.36
907.69	-56.95
907.99	7.02
908.30	39.79
908.60	-31.21
908.90	50.71
909.20	-12.48
909.50	11.70
909.81	11.70
910.11	-77.24
910.41	3.90
910.71	36.67
911.02	-48.37
911.32	26.53
911.62	-54.61
911.92	28.09
912.22	34.33
912.52	3.90
912.83	-5.46
913.13	74.12
913.43	-24.19
913.73	-32.77
914.03	-8.58
914.33	-10.14
914.64	-46.03
914.94	-14.82
915.24	-41.35
915.54	0.00
915.84	-7.02
916.14	-0.78
916.44	45.25
916.74	33.55
917.04	21.84
917.34	-37.45
917.64	-11.70
917.95	-19.50
918.25	60.07
918.55	21.84
918.85	-34.33
919.15	52.27
919.45	35.11
919.75	-7.02
920.05	81.14
920.35	3.90
920.65	29.65
920.95	-7.80
921.25	-13.26
921.55	-23.41
921.85	-32.77
922.15	19.50
922.45	-10.92
922.75	-39.01
923.05	-57.73
923.35	0.00
923.65	-38.23
923.95	-14.04
924.25	-26.53
924.55	7.02
924.84	10.14
925.14	-10.14
925.44	-28.87
925.74	18.72
926.04	25.75
926.34	-31.99
926.64	-13.26
926.94	14.04
927.24	-24.19
927.54	9.36
927.83	67.10
928.13	14.04
928.43	-21.85
928.73	-7.80
929.03	-9.36
929.33	-15.60
929.63	-8.58
929.92	-23.41
930.22	-46.03
930.52	-53.05
930.82	-42.13
931.12	23.41
931.41	21.06
931.71	13.26
932.01	-24.97
932.31	0.78
932.61	15.60
932.90	-15.60
933.20	33.55
933.50	-31.99
933.80	-15.60
934.09	-10.14
934.39	26.53
934.69	53.83
934.99	-59.29
935.28	-1.56
935.58	-18.72
935.88	-37.45
936.18	28.87
936.47	1.56
936.77	38.23
937.07	-13.26
937.36	-31.21
937.66	13.26
937.96	-38.23
938.25	8.58
938.55	-18.72
938.85	23.41
939.14	10.14
939.44	18.72
939.74	48.37
940.03	-42.91
940.33	43.69
940.62	29.65
940.92	-30.43
941.22	2.34
941.51	-21.06
941.81	29.65
942.10	19.50
942.40	-17.16
942.70	21.06
942.99	28.09
943.29	-22.63
943.58	3.12
943.88	-31.21
944.17	-24.97
944.47	-31.21
944.76	-31.99
945.06	-19.50
945.36	-25.75
945.65	0.00
945.95	4.68
946.24	-6.24
946.54	-9.36
946.83	-35.89
947.13	-34.33
947.42	-24.97
947.71	-14.82
948.01	-41.35
948.30	-19.50
948.60	-0.00
948.89	10.14
949.19	5.46
949.48	7.02
949.78	14.82
950.07	-7.02
950.37	46.81
950.66	-27.31
950.95	-14.04
951.25	17.94
951.54	28.87
951.84	19.50
952.13	36.67
952.42	-2.34
952.72	-27.31
953.01	20.28
953.30	-10.92
953.60	-39.01
953.89	24.97
954.18	-55.39
954.48	-35.11
954.77	36.67
955.06	11.70
955.36	-3.12
955.65	57.73
955.94	-46.03
956.24	10.92
956.53	24.97
956.82	0.78
957.12	3.12
957.41	-3.90
957.70	16.38
957.99	-3.12
958.29	-63.19
958.58	1.56
958.87	12.48
959.16	-4.68
959.46	-8.58
959.75	-13.26
960.04	8.58
960.33	-23.41
960.63	39.79
960.92	-8.58
961.21	-25.75
961.50	-4.68
961.79	14.82
962.08	-30.43
962.38	-14.04
962.67	23.41
962.96	-3.12
963.25	4.68
963.54	29.65
963.83	0.78
964.13	14.04
964.42	40.57
964.71	51.49
965.00	16.38
965.29	-14.04
965.58	-3.90
965.87	-10.14
966.16	-41.35
966.45	11.70
966.75	17.94
967.04	24.97
967.33	-28.09
967.62	28.87
967.91	-0.78
968.20	-20.28
968.49	26.53
968.78	9.36
969.07	-17.94
969.36	-24.19
969.65	32.77
969.94	57.73
970.23	-10.14
970.52	-46.81
970.81	-46.81
971.10	-35.11
971.39	-42.91
971.68	-21.84
971.97	22.63
972.26	39.01
972.55	-2.34
972.84	32.77
973.13	10.92
973.42	21.06
973.71	-42.91
974.00	51.49
974.29	36.67
974.58	18.72
974.87	21.06
975.15	-30.43
975.44	31.99
975.73	-5.46
976.02	84.26
976.31	-44.47
976.60	-18.72
976.89	43.69
977.18	71.78
977.47	15.60
977.75	30.43
978.04	-49.93
978.33	-31.21
978.62	5.46
978.91	2.34
979.20	21.06
979.48	-31.21
979.77	-46.81
980.06	47.59
980.35	6.24
980.64	39.01
980.92	-5.46
981.21	-31.99
981.50	28.09
981.79	-30.43
982.07	-29.65
982.36	27.31
982.65	6.24
982.94	-19.50
983.22	9.36
983.51	55.39
983.80	-23.41
984.09	-28.87
984.37	-18.72
984.66	-34.33
984.95	-40.57
985.23	-10.14
985.52	-3.90
985.81	17.94
986.10	39.79
986.38	12.48
986.67	-14.04
986.96	-9.36
987.24	12.48
987.53	-11.70
987.81	-4.68
988.10	31.21
988.39	-30.43
988.67	-2.34
988.96	16.38
989.25	-36.67
989.53	-22.63
989.82	72.56
990.10	25.75
990.39	30.43
990.68	-16.38
990.96	6.24
991.25	-17.94
991.53	-14.82
991.82	66.32
992.10	14.82
992.39	9.36
992.67	-33.55
992.96	-22.63
993.24	8.58
993.53	34.33
993.82	25.75
994.10	29.65
994.39	6.24
994.67	42.13
994.96	-10.14
995.24	-75.68
995.52	21.85
995.81	4.68
996.09	-7.80
996.38	-51.49
996.66	28.09
996.95	28.09
997.23	0.78
997.52	-35.89
997.80	-9.36
998.08	-5.46
998.37	21.85
998.65	25.75
998.94	17.16
999.22	6.24
999.50	-14.82
999.79	-39.79
1000.07	3.12
1000.36	-33.55
1000.64	34.33
1000.92	13.26
1001.21	0.78
1001.49	19.50
1001.77	15.60
1002.06	-2.34
1002.34	-27.31
1002.62	-37.45
1002.91	4.68
1003.19	31.21
1003.47	35.11
1003.76	10.92
1004.04	-15.60
1004.32	43.69
1004.60	-73.34
1004.89	-22.63
1005.17	-16.38
1005.45	-9.36
1005.74	-14.04
1006.02	38.23
1006.30	-7.80
1006.58	-9.36
1006.86	44.47
1007.15	-19.50
1007.43	4.68
1007.71	-22.63
1007.99	-22.63
1008.28	-21.84
1008.56	18.72
1008.84	18.72
1009.12	8.58
1009.40	10.14
1009.68	-3.90
1009.97	29.65
1010.25	43.69
1010.53	24.19
1010.81	10.92
1011.09	-11.70
1011.37	-61.63
1011.65	-6.24
1011.94	21.06
1012.22	10.92
1012.50	9.36
1012.78	-23.41
1013.06	-3.12
1013.34	-55.39
1013.62	17.16
1013.90	-37.45
1014.18	-32.77
1014.46	10.92
1014.74	-13.26
1015.02	-31.99
1015.30	-53.83
1015.58	38.23
1015.87	3.90
1016.15	-7.02
1016.43	80.36
1016.71	1.56
1016.99	20.28
1017.27	13.26
1017.55	43.69
1017.83	-34.33
1018.11	28.09
1018.39	-33.55
1018.66	26.53
1018.94	22.63
1019.22	-62.41
1019.50	-44.47
1019.78	-49.93
1020.06	21.84
1020.34	8.58
1020.62	59.29
1020.90	36.67
1021.18	-0.78
1021.46	11.70
1021.74	17.16
1022.02	10.92
1022.29	17.16
1022.57	-9.36
1022.85	7.02
1023.13	-46.03
1023.41	-32.77
1023.69	-6.24
1023.97	34.33
1024.25	24.19
1024.52	-60.07
1024.80	-21.84
1025.08	-21.84
1025.36	-21.84
>>>>>End Processed Spectral Data<<<<<
